   Elapsed time	  ECG I	iltered
      (seconds)	   (mV)	   (mV)
          0.000	  0.045	 -0.220
          0.002	  0.105	 -0.170
          0.004	  0.080	 -0.135
          0.006	  0.155	 -0.105
          0.008	  0.150	 -0.090
          0.010	  0.210	 -0.085
          0.012	  0.235	 -0.095
          0.014	  0.200	 -0.110
          0.016	  0.135	 -0.125
          0.018	  0.145	 -0.140
          0.020	  0.065	 -0.150
          0.022	  0.030	 -0.150
          0.024	  0.060	 -0.140
          0.026	  0.145	 -0.130
          0.028	  0.150	 -0.125
          0.030	  0.245	 -0.120
          0.032	  0.200	 -0.120
          0.034	  0.130	 -0.130
          0.036	  0.125	 -0.140
          0.038	  0.140	 -0.155
          0.040	  0.065	 -0.165
          0.042	  0.030	 -0.170
          0.044	  0.050	 -0.160
          0.046	  0.075	 -0.145
          0.048	  0.110	 -0.110
          0.050	  0.305	 -0.060
          0.052	  0.430	  0.000
          0.054	  0.440	  0.070
          0.056	  0.455	  0.160
          0.058	  0.490	  0.255
          0.060	  0.510	  0.355
          0.062	  0.610	  0.460
          0.064	  0.840	  0.555
          0.066	  1.000	  0.640
          0.068	  1.070	  0.705
          0.070	  1.155	  0.735
          0.072	  1.075	  0.725
          0.074	  0.995	  0.680
          0.076	  0.845	  0.600
          0.078	  0.735	  0.490
          0.080	  0.505	  0.360
          0.082	  0.375	  0.230
          0.084	  0.295	  0.105
          0.086	  0.250	 -0.005
          0.088	  0.165	 -0.085
          0.090	  0.195	 -0.140
          0.092	  0.180	 -0.165
          0.094	  0.150	 -0.170
          0.096	  0.140	 -0.165
          0.098	  0.070	 -0.145
          0.100	  0.070	 -0.130
          0.102	  0.065	 -0.115
          0.104	  0.120	 -0.100
          0.106	  0.175	 -0.095
          0.108	  0.240	 -0.090
          0.110	  0.320	 -0.090
          0.112	  0.285	 -0.090
          0.114	  0.225	 -0.090
          0.116	  0.195	 -0.090
          0.118	  0.080	 -0.090
          0.120	  0.055	 -0.090
          0.122	  0.120	 -0.095
          0.124	  0.125	 -0.095
          0.126	  0.220	 -0.100
          0.128	  0.280	 -0.110
          0.130	  0.235	 -0.110
          0.132	  0.205	 -0.115
          0.134	  0.165	 -0.115
          0.136	  0.170	 -0.110
          0.138	  0.090	 -0.105
          0.140	  0.090	 -0.100
          0.142	  0.115	 -0.090
          0.144	  0.180	 -0.085
          0.146	  0.245	 -0.080
          0.148	  0.280	 -0.080
          0.150	  0.245	 -0.080
          0.152	  0.280	 -0.085
          0.154	  0.240	 -0.090
          0.156	  0.150	 -0.100
          0.158	  0.050	 -0.105
          0.160	 -0.030	 -0.115
          0.162	  0.025	 -0.115
          0.164	  0.190	 -0.115
          0.166	  0.235	 -0.105
          0.168	  0.320	 -0.090
          0.170	  0.335	 -0.075
          0.172	  0.315	 -0.060
          0.174	  0.250	 -0.040
          0.176	  0.210	 -0.025
          0.178	  0.135	 -0.020
          0.180	  0.165	 -0.015
          0.182	  0.180	 -0.015
          0.184	  0.205	 -0.020
          0.186	  0.235	 -0.030
          0.188	  0.305	 -0.035
          0.190	  0.315	 -0.040
          0.192	  0.335	 -0.040
          0.194	  0.255	 -0.040
          0.196	  0.230	 -0.035
          0.198	  0.135	 -0.030
          0.200	  0.175	 -0.025
          0.202	  0.170	 -0.020
          0.204	  0.230	 -0.020
          0.206	  0.225	 -0.020
          0.208	  0.315	 -0.015
          0.210	  0.340	 -0.015
          0.212	  0.325	 -0.010
          0.214	  0.270	 -0.005
          0.216	  0.270	  0.005
          0.218	  0.190	  0.015
          0.220	  0.220	  0.020
          0.222	  0.220	  0.030
          0.224	  0.285	  0.035
          0.226	  0.300	  0.035
          0.228	  0.385	  0.035
          0.230	  0.365	  0.035
          0.232	  0.395	  0.030
          0.234	  0.340	  0.030
          0.236	  0.300	  0.035
          0.238	  0.200	  0.035
          0.240	  0.170	  0.045
          0.242	  0.235	  0.055
          0.244	  0.280	  0.065
          0.246	  0.350	  0.075
          0.248	  0.410	  0.085
          0.250	  0.505	  0.100
          0.252	  0.510	  0.115
          0.254	  0.475	  0.125
          0.256	  0.405	  0.140
          0.258	  0.265	  0.155
          0.260	  0.295	  0.170
          0.262	  0.355	  0.180
          0.264	  0.450	  0.190
          0.266	  0.445	  0.190
          0.268	  0.590	  0.195
          0.270	  0.600	  0.190
          0.272	  0.515	  0.190
          0.274	  0.445	  0.185
          0.276	  0.380	  0.185
          0.278	  0.350	  0.185
          0.280	  0.325	  0.190
          0.282	  0.385	  0.195
          0.284	  0.465	  0.205
          0.286	  0.530	  0.220
          0.288	  0.575	  0.230
          0.290	  0.635	  0.240
          0.292	  0.585	  0.250
          0.294	  0.485	  0.255
          0.296	  0.430	  0.255
          0.298	  0.360	  0.255
          0.300	  0.440	  0.255
          0.302	  0.485	  0.255
          0.304	  0.495	  0.255
          0.306	  0.500	  0.250
          0.308	  0.610	  0.250
          0.310	  0.645	  0.250
          0.312	  0.570	  0.245
          0.314	  0.480	  0.240
          0.316	  0.450	  0.230
          0.318	  0.340	  0.215
          0.320	  0.325	  0.200
          0.322	  0.335	  0.180
          0.324	  0.440	  0.160
          0.326	  0.400	  0.145
          0.328	  0.445	  0.130
          0.330	  0.490	  0.120
          0.332	  0.435	  0.110
          0.334	  0.350	  0.100
          0.336	  0.330	  0.095
          0.338	  0.195	  0.080
          0.340	  0.200	  0.065
          0.342	  0.205	  0.045
          0.344	  0.320	  0.025
          0.346	  0.270	  0.005
          0.348	  0.320	 -0.015
          0.350	  0.340	 -0.030
          0.352	  0.290	 -0.035
          0.354	  0.240	 -0.035
          0.356	  0.100	 -0.030
          0.358	  0.140	 -0.025
          0.360	  0.125	 -0.015
          0.362	  0.200	 -0.010
          0.364	  0.240	 -0.010
          0.366	  0.265	 -0.020
          0.368	  0.315	 -0.030
          0.370	  0.275	 -0.045
          0.372	  0.215	 -0.060
          0.374	  0.130	 -0.075
          0.376	  0.095	 -0.085
          0.378	  0.060	 -0.090
          0.380	  0.005	 -0.090
          0.382	  0.110	 -0.090
          0.384	  0.140	 -0.090
          0.386	  0.180	 -0.090
          0.388	  0.250	 -0.095
          0.390	  0.240	 -0.100
          0.392	  0.155	 -0.110
          0.394	  0.080	 -0.115
          0.396	  0.050	 -0.120
          0.398	  0.025	 -0.125
          0.400	  0.005	 -0.125
          0.402	  0.080	 -0.120
          0.404	  0.140	 -0.110
          0.406	  0.165	 -0.105
          0.408	  0.140	 -0.100
          0.410	  0.250	 -0.100
          0.412	  0.240	 -0.100
          0.414	  0.105	 -0.105
          0.416	  0.085	 -0.110
          0.418	 -0.010	 -0.115
          0.420	  0.000	 -0.115
          0.422	  0.095	 -0.115
          0.424	  0.100	 -0.110
          0.426	  0.210	 -0.095
          0.428	  0.260	 -0.085
          0.430	  0.240	 -0.075
          0.432	  0.220	 -0.065
          0.434	  0.185	 -0.060
          0.436	  0.065	 -0.060
          0.438	  0.025	 -0.070
          0.440	  0.020	 -0.080
          0.442	  0.065	 -0.095
          0.444	  0.135	 -0.110
          0.446	  0.230	 -0.115
          0.448	  0.200	 -0.120
          0.450	  0.200	 -0.120
          0.452	  0.160	 -0.110
          0.454	  0.115	 -0.100
          0.456	  0.045	 -0.085
          0.458	  0.070	 -0.070
          0.460	  0.050	 -0.060
          0.462	  0.090	 -0.050
          0.464	  0.155	 -0.050
          0.466	  0.195	 -0.050
          0.468	  0.255	 -0.050
          0.470	  0.265	 -0.055
          0.472	  0.210	 -0.060
          0.474	  0.170	 -0.060
          0.476	  0.055	 -0.055
          0.478	  0.050	 -0.050
          0.480	  0.055	 -0.045
          0.482	  0.150	 -0.045
          0.484	  0.205	 -0.040
          0.486	  0.265	 -0.040
          0.488	  0.250	 -0.040
          0.490	  0.175	 -0.040
          0.492	  0.205	 -0.040
          0.494	  0.135	 -0.040
          0.496	  0.105	 -0.035
          0.498	  0.080	 -0.030
          0.500	  0.080	 -0.025
          0.502	  0.135	 -0.020
          0.504	  0.220	 -0.015
          0.506	  0.255	 -0.015
          0.508	  0.265	 -0.020
          0.510	  0.230	 -0.030
          0.512	  0.185	 -0.040
          0.514	  0.150	 -0.050
          0.516	  0.050	 -0.055
          0.518	  0.005	 -0.055
          0.520	  0.030	 -0.055
          0.522	  0.140	 -0.045
          0.524	  0.195	 -0.035
          0.526	  0.260	 -0.030
          0.528	  0.250	 -0.025
          0.530	  0.265	 -0.020
          0.532	  0.180	 -0.025
          0.534	  0.160	 -0.035
          0.536	  0.010	 -0.040
          0.538	  0.030	 -0.050
          0.540	  0.030	 -0.050
          0.542	  0.085	 -0.050
          0.544	  0.165	 -0.045
          0.546	  0.350	 -0.035
          0.548	  0.300	 -0.025
          0.550	  0.230	 -0.020
          0.552	  0.100	 -0.015
          0.554	  0.080	 -0.015
          0.556	 -0.005	 -0.020
          0.558	  0.070	 -0.025
          0.560	  0.115	 -0.030
          0.562	  0.120	 -0.035
          0.564	  0.195	 -0.035
          0.566	  0.270	 -0.035
          0.568	  0.290	 -0.030
          0.570	  0.205	 -0.030
          0.572	  0.150	 -0.030
          0.574	  0.130	 -0.035
          0.576	 -0.030	 -0.040
          0.578	 -0.040	 -0.050
          0.580	  0.080	 -0.060
          0.582	  0.170	 -0.065
          0.584	  0.140	 -0.070
          0.586	  0.200	 -0.060
          0.588	  0.175	 -0.050
          0.590	  0.215	 -0.035
          0.592	  0.195	 -0.015
          0.594	  0.090	 -0.005
          0.596	  0.010	  0.000
          0.598	 -0.010	 -0.005
          0.600	  0.105	 -0.015
          0.602	  0.195	 -0.035
          0.604	  0.120	 -0.055
          0.606	  0.180	 -0.070
          0.608	  0.240	 -0.075
          0.610	  0.195	 -0.075
          0.612	  0.130	 -0.060
          0.614	  0.010	 -0.045
          0.616	 -0.010	 -0.025
          0.618	  0.040	 -0.005
          0.620	  0.075	  0.005
          0.622	  0.170	  0.010
          0.624	  0.210	  0.005
          0.626	  0.265	 -0.005
          0.628	  0.225	 -0.020
          0.630	  0.090	 -0.030
          0.632	  0.115	 -0.035
          0.634	  0.100	 -0.035
          0.636	  0.015	 -0.030
          0.638	  0.045	 -0.020
          0.640	  0.040	 -0.010
          0.642	  0.125	  0.000
          0.644	  0.175	  0.010
          0.646	  0.275	  0.015
          0.648	  0.265	  0.015
          0.650	  0.275	  0.020
          0.652	  0.140	  0.020
          0.654	  0.050	  0.025
          0.656	 -0.010	  0.025
          0.658	  0.045	  0.025
          0.660	  0.165	  0.030
          0.662	  0.165	  0.025
          0.664	  0.200	  0.020
          0.666	  0.230	  0.015
          0.668	  0.240	  0.005
          0.670	  0.205	 -0.005
          0.672	  0.145	 -0.010
          0.674	  0.105	 -0.010
          0.676	 -0.005	 -0.005
          0.678	  0.020	  0.005
          0.680	  0.005	  0.020
          0.682	  0.180	  0.035
          0.684	  0.285	  0.050
          0.686	  0.305	  0.065
          0.688	  0.265	  0.075
          0.690	  0.260	  0.085
          0.692	  0.200	  0.095
          0.694	  0.130	  0.095
          0.696	  0.145	  0.100
          0.698	  0.070	  0.100
          0.700	  0.180	  0.095
          0.702	  0.215	  0.095
          0.704	  0.290	  0.090
          0.706	  0.295	  0.080
          0.708	  0.265	  0.070
          0.710	  0.190	  0.060
          0.712	  0.165	  0.050
          0.714	  0.035	  0.040
          0.716	  0.035	  0.030
          0.718	  0.075	  0.025
          0.720	  0.140	  0.020
          0.722	  0.125	  0.020
          0.724	  0.230	  0.015
          0.726	  0.195	  0.015
          0.728	  0.200	  0.010
          0.730	  0.170	  0.010
          0.732	  0.095	  0.010
          0.734	 -0.040	  0.005
          0.736	 -0.005	  0.005
          0.738	  0.050	  0.005
          0.740	  0.065	  0.000
          0.742	  0.110	  0.000
          0.744	  0.180	  0.000
          0.746	  0.200	  0.000
          0.748	  0.190	  0.000
          0.750	  0.150	  0.005
          0.752	  0.080	  0.005
          0.754	 -0.010	  0.010
          0.756	 -0.010	  0.015
          0.758	  0.000	  0.020
          0.760	  0.105	  0.025
          0.762	  0.115	  0.030
          0.764	  0.235	  0.030
          0.766	  0.240	  0.030
          0.768	  0.190	  0.025
          0.770	  0.100	  0.020
          0.772	  0.000	  0.020
          0.774	 -0.030	  0.020
          0.776	  0.050	  0.020
          0.778	  0.100	  0.020
          0.780	  0.115	  0.025
          0.782	  0.095	  0.030
          0.784	  0.210	  0.035
          0.786	  0.190	  0.035
          0.788	  0.170	  0.030
          0.790	  0.105	  0.030
          0.792	  0.090	  0.025
          0.794	  0.025	  0.020
          0.796	 -0.040	  0.020
          0.798	  0.015	  0.025
          0.800	  0.060	  0.030
          0.802	  0.065	  0.040
          0.804	  0.280	  0.050
          0.806	  0.270	  0.055
          0.808	  0.175	  0.055
          0.810	  0.105	  0.050
          0.812	  0.020	  0.035
          0.814	 -0.060	  0.020
          0.816	 -0.075	  0.010
          0.818	 -0.020	  0.000
          0.820	  0.130	  0.000
          0.822	  0.115	  0.015
          0.824	  0.225	  0.040
          0.826	  0.240	  0.080
          0.828	  0.250	  0.130
          0.830	  0.290	  0.185
          0.832	  0.285	  0.255
          0.834	  0.255	  0.330
          0.836	  0.400	  0.410
          0.838	  0.475	  0.495
          0.840	  0.625	  0.590
          0.842	  0.790	  0.685
          0.844	  1.025	  0.780
          0.846	  1.095	  0.860
          0.848	  1.070	  0.920
          0.850	  1.080	  0.945
          0.852	  0.945	  0.935
          0.854	  0.790	  0.885
          0.856	  0.730	  0.795
          0.858	  0.665	  0.670
          0.860	  0.575	  0.530
          0.862	  0.365	  0.380
          0.864	  0.360	  0.250
          0.866	  0.240	  0.135
          0.868	  0.135	  0.060
          0.870	  0.015	  0.015
          0.872	  0.020	  0.000
          0.874	 -0.025	  0.015
          0.876	 -0.060	  0.040
          0.878	  0.015	  0.075
          0.880	  0.160	  0.105
          0.882	  0.250	  0.130
          0.884	  0.330	  0.140
          0.886	  0.345	  0.140
          0.888	  0.255	  0.135
          0.890	  0.210	  0.130
          0.892	  0.020	  0.120
          0.894	 -0.100	  0.110
          0.896	  0.030	  0.105
          0.898	  0.125	  0.105
          0.900	  0.165	  0.105
          0.902	  0.100	  0.105
          0.904	  0.275	  0.105
          0.906	  0.295	  0.110
          0.908	  0.245	  0.110
          0.910	  0.150	  0.115
          0.912	  0.095	  0.120
          0.914	  0.030	  0.120
          0.916	 -0.015	  0.120
          0.918	  0.075	  0.125
          0.920	  0.125	  0.125
          0.922	  0.200	  0.125
          0.924	  0.225	  0.125
          0.926	  0.175	  0.125
          0.928	  0.240	  0.130
          0.930	  0.200	  0.135
          0.932	  0.150	  0.140
          0.934	  0.045	  0.145
          0.936	  0.070	  0.150
          0.938	  0.065	  0.155
          0.940	  0.165	  0.155
          0.942	  0.255	  0.155
          0.944	  0.255	  0.155
          0.946	  0.225	  0.155
          0.948	  0.230	  0.155
          0.950	  0.185	  0.160
          0.952	  0.100	  0.165
          0.954	  0.030	  0.175
          0.956	  0.110	  0.180
          0.958	  0.250	  0.190
          0.960	  0.190	  0.190
          0.962	  0.165	  0.195
          0.964	  0.260	  0.190
          0.966	  0.270	  0.190
          0.968	  0.275	  0.185
          0.970	  0.170	  0.185
          0.972	  0.100	  0.185
          0.974	  0.125	  0.195
          0.976	  0.135	  0.205
          0.978	  0.140	  0.215
          0.980	  0.170	  0.230
          0.982	  0.325	  0.245
          0.984	  0.355	  0.255
          0.986	  0.305	  0.260
          0.988	  0.270	  0.260
          0.990	  0.215	  0.260
          0.992	  0.190	  0.255
          0.994	  0.150	  0.250
          0.996	  0.145	  0.240
          0.998	  0.145	  0.235
          1.000	  0.230	  0.235
          1.002	  0.275	  0.230
          1.004	  0.320	  0.235
          1.006	  0.290	  0.245
          1.008	  0.310	  0.255
          1.010	  0.285	  0.270
          1.012	  0.175	  0.285
          1.014	  0.200	  0.295
          1.016	  0.180	  0.310
          1.018	  0.240	  0.320
          1.020	  0.340	  0.325
          1.022	  0.445	  0.325
          1.024	  0.400	  0.325
          1.026	  0.365	  0.325
          1.028	  0.305	  0.325
          1.030	  0.240	  0.330
          1.032	  0.185	  0.340
          1.034	  0.245	  0.355
          1.036	  0.270	  0.370
          1.038	  0.385	  0.385
          1.040	  0.425	  0.405
          1.042	  0.490	  0.420
          1.044	  0.475	  0.430
          1.046	  0.480	  0.435
          1.048	  0.450	  0.440
          1.050	  0.350	  0.440
          1.052	  0.305	  0.440
          1.054	  0.370	  0.440
          1.056	  0.345	  0.440
          1.058	  0.405	  0.445
          1.060	  0.400	  0.445
          1.062	  0.495	  0.450
          1.064	  0.515	  0.455
          1.066	  0.560	  0.460
          1.068	  0.445	  0.460
          1.070	  0.410	  0.460
          1.072	  0.370	  0.455
          1.074	  0.300	  0.450
          1.076	  0.295	  0.440
          1.078	  0.350	  0.425
          1.080	  0.375	  0.410
          1.082	  0.430	  0.390
          1.084	  0.420	  0.375
          1.086	  0.370	  0.355
          1.088	  0.310	  0.335
          1.090	  0.270	  0.320
          1.092	  0.185	  0.300
          1.094	  0.185	  0.285
          1.096	  0.080	  0.265
          1.098	  0.175	  0.245
          1.100	  0.165	  0.220
          1.102	  0.270	  0.195
          1.104	  0.240	  0.170
          1.106	  0.165	  0.145
          1.108	  0.045	  0.120
          1.110	 -0.040	  0.105
          1.112	 -0.070	  0.090
          1.114	 -0.035	  0.080
          1.116	 -0.025	  0.070
          1.118	 -0.025	  0.060
          1.120	  0.010	  0.050
          1.122	  0.070	  0.030
          1.124	  0.070	  0.010
          1.126	  0.010	 -0.015
          1.128	 -0.155	 -0.040
          1.130	 -0.185	 -0.065
          1.132	 -0.250	 -0.085
          1.134	 -0.200	 -0.095
          1.136	 -0.215	 -0.105
          1.138	 -0.195	 -0.110
          1.140	 -0.165	 -0.110
          1.142	 -0.065	 -0.115
          1.144	 -0.095	 -0.125
          1.146	 -0.170	 -0.145
          1.148	 -0.245	 -0.170
          1.150	 -0.335	 -0.200
          1.152	 -0.415	 -0.230
          1.154	 -0.395	 -0.255
          1.156	 -0.400	 -0.275
          1.158	 -0.335	 -0.290
          1.160	 -0.270	 -0.290
          1.162	 -0.235	 -0.290
          1.164	 -0.270	 -0.280
          1.166	 -0.255	 -0.275
          1.168	 -0.350	 -0.270
          1.170	 -0.355	 -0.270
          1.172	 -0.500	 -0.275
          1.174	 -0.465	 -0.285
          1.176	 -0.380	 -0.290
          1.178	 -0.320	 -0.295
          1.180	 -0.360	 -0.295
          1.182	 -0.245	 -0.295
          1.184	 -0.270	 -0.295
          1.186	 -0.315	 -0.290
          1.188	 -0.325	 -0.290
          1.190	 -0.340	 -0.295
          1.192	 -0.495	 -0.300
          1.194	 -0.485	 -0.310
          1.196	 -0.440	 -0.315
          1.198	 -0.350	 -0.325
          1.200	 -0.365	 -0.330
          1.202	 -0.275	 -0.330
          1.204	 -0.310	 -0.320
          1.206	 -0.335	 -0.315
          1.208	 -0.385	 -0.305
          1.210	 -0.405	 -0.295
          1.212	 -0.445	 -0.285
          1.214	 -0.465	 -0.280
          1.216	 -0.400	 -0.285
          1.218	 -0.330	 -0.285
          1.220	 -0.260	 -0.295
          1.222	 -0.210	 -0.300
          1.224	 -0.340	 -0.310
          1.226	 -0.405	 -0.320
          1.228	 -0.415	 -0.325
          1.230	 -0.405	 -0.325
          1.232	 -0.510	 -0.325
          1.234	 -0.525	 -0.325
          1.236	 -0.485	 -0.320
          1.238	 -0.390	 -0.310
          1.240	 -0.360	 -0.305
          1.242	 -0.215	 -0.295
          1.244	 -0.245	 -0.285
